Thermal Neutron Capture Gammas — Target Nucleus 56Fe

Target Nucleus=56Fe
Strongest transition  Eγ=7631.18+-0.10 keV    %Iγ=29.00+-4.94
Eγ
(keV)
ΔEγ
(keV)
Iγ/Iγ(max)
(%)
Δ(Iγ/Iγ(max))
 
14.00		0.00					
122.08		0.02		1.72		0.34	
136.52		0.02		14.14		2.79	
211.87		0.09		0.28		0.06	
230.29		0.02		3.00		0.62	
251.10		0.30		0.14		0.04	
335.90		0.30		0.14		0.04	
339.54		0.18		0.28		0.06	
352.36		0.01		32.76		6.69	
366.75		0.01		5.79		1.18	
460.10		0.40		0.10		0.04	
564.19		0.06		0.76		0.15	
569.92		0.04		1.79		0.37	
575.09		0.19		0.66		0.36	
598.63		0.14		0.76		0.17	
601.30		0.20		0.48		0.11	
603.54		0.19		0.55		0.14	
657.56		0.09		0.86		0.20	
692.03		0.02		16.38		3.30	
703.40		0.40		0.17		0.07	
706.40		0.20		0.93		0.38	
723.00		2.00		0.03		0.03	
735.10		0.30		0.14		0.04	
747.31		0.07		0.41		0.10	
749.40		0.40		0.14		0.04	
803.09		0.08		0.72		0.14	
818.60		0.30		0.14		0.04	
834.91		0.08		0.72		0.14	
837.90		0.30		0.24		0.05	
849.50		0.50		0.14		0.04	
870.75		0.17		0.59		0.12	
884.78		0.10		0.97		0.19	
898.28		0.02		6.55		1.33	
920.85		0.02		2.62		0.54	
942.00		1.40		0.07		0.04	
977.10		0.70		0.17		0.11	
988.20		0.50		0.10		0.04	
991.80		0.50		0.14		0.04	
1006.90		0.50		0.10		0.04	
1019.02		0.02		6.00		1.20	
1022.00		0.30		0.17		0.05	
1026.40		0.30		0.17		0.05	
1041.10		0.50		0.10		0.04	
1043.90		0.40		0.24		0.05	
1077.30		0.30		0.14		0.04	
1110.90		0.30		0.17		0.05	
1115.64		0.15		0.31		0.06	
1119.80		0.60		0.07		0.04	
1159.50		1.30		0.07		0.04	
1186.00		0.50		0.14		0.04	
1197.27		0.06		1.24		0.25	
1215.38		0.04		0.34		0.09	
1218.55		0.04		0.24		0.05	
1250.99		0.09		0.41		0.10	
1255.50		0.80		0.07		0.04	
1260.60		0.03		8.62		1.72	
1263.30		0.30		0.34		0.07	
1282.30		0.60		0.31		0.15	
1284.00		0.50		0.34		0.18	
1300.90		0.40		0.31		0.09	
1305.30		0.30		0.24		0.08	
1345.20		0.50		0.21		0.05	
1355.60		0.40		0.45		0.13	
1358.71		0.04		3.10		0.63	
1360.48		0.00		0.17		0.07	
1369.10		0.20		0.45		0.10	
1371.60		0.40		0.21		0.08	
1381.70		0.20		0.45		0.10	
1412.01		0.12		0.59		0.12	
1430.20		0.40		0.14		0.04	
1435.58		0.08		0.76		0.15	
1447.00		0.30		0.28		0.08	
1457.40		0.50		0.14		0.04	
1460.90		0.30		0.28		0.06	
1487.20		0.90		0.10		0.04	
1492.40		0.40		0.21		0.05	
1506.00		0.20		0.28		0.06	
1584.60		0.30		0.24		0.05	
1612.78		0.02		18.55		3.70	
1627.05		0.07		0.72		0.14	
1646.00		0.30		0.24		0.05	
1655.51		0.11		0.52		0.14	
1672.10		0.80		0.14		0.07	
1674.62		0.12		0.28		0.08	
1691.00		1.00		0.24		0.05	
1697.34		0.12		0.93		0.19	
1700.80		0.30		0.38		0.09	
1705.00		0.80		0.10		0.04	
1710.20		0.30		0.86		0.25	
1717.20		0.30		0.24		0.05	
1722.40		0.12		1.14		0.24	
1725.29		0.03		21.72		4.42	
1760.10		0.20		0.41		0.10	
1802.30		0.60		0.14		0.04	
1810.51		0.16		0.86		0.18	
1812.90		0.50		0.24		0.08	
1825.90		0.30		0.31		0.09	
1828.90		1.00		0.10		0.07	
1836.40		0.40		0.21		0.05	
1841.90		0.40		0.31		0.12	
1851.30		0.40		0.21		0.05	
1855.90		0.40		0.21		0.05	
1899.50		0.50		0.21		0.08	
1927.60		0.50		0.14		0.07	
1931.80		0.70		0.21		0.08	
1943.10		0.50		1.00		0.45	
1965.30		0.20		1.00		0.22	
1973.40		0.40		0.52		0.14	
1976.40		1.10		0.14		0.07	
1982.10		0.40		0.28		0.08	
1987.00		0.70		0.14		0.04	
1991.00		1.00		0.10		0.04	
2033.20		0.20		0.17		0.07	
2039.70		0.40		0.17		0.05	
2045.70		0.40		0.24		0.05	
2066.17		0.11		1.69		0.35	
2068.90		0.50		0.38		0.12	
2081.20		0.30		0.34		0.09	
2091.85		0.15		1.31		0.28	
2097.00		2.00		0.17		0.11	
2101.30		1.40		0.28		0.15	
2104.50		0.50		0.48		0.13	
2113.40		0.30		0.52		0.14	
2129.48		0.07		2.31		0.46	
2138.63		0.17		0.59		0.14	
2151.50		0.20		0.59		0.14	
2164.69		0.17		0.69		0.16	
2186.60		0.40		0.14		0.04	
2192.80		0.40		0.86		0.23	
2198.20		0.50		0.59		0.17	
2202.70		0.80		0.45		0.16	
2206.80		0.60		0.72		0.21	
2216.20		0.50		0.41		0.15	
2246.00		0.50		0.38		0.09	
2348.90		0.90		0.21		0.11	
2351.70		0.50		0.38		0.12	
2385.30		0.40		0.31		0.09	
2391.80		0.20		0.76		0.17	
2407.40		0.40		0.34		0.09	
2415.10		0.30		0.55		0.14	
2424.30		0.90		0.21		0.08	
2462.10		0.70		0.24		0.05	
2466.00		0.90		0.28		0.08	
2480.20		0.60		0.21		0.08	
2486.00		0.60		0.28		0.08	
2490.80		1.30		0.10		0.04	
2507.20		0.70		0.14		0.04	
2517.00		0.50		0.34		0.12	
2526.20		0.30		1.00		0.30	
2534.00		0.60		0.21		0.11	
2537.10		0.50		0.28		0.08	
2562.40		0.50		0.14		0.04	
2574.30		0.30		0.38		0.09	
2582.00		0.30		0.31		0.09	
2598.10		1.10		0.10		0.04	
2603.10		1.50		0.24		0.08	
2618.90		0.90		0.17		0.07	
2654.30		0.40		0.17		0.07	
2682.50		0.30		1.48		0.31	
2691.60		0.50		0.24		0.08	
2696.60		0.30		1.03		0.25	
2704.60		0.90		0.17		0.07	
2721.17		0.06		4.72		0.94	
2734.20		0.30		0.52		0.14	
2753.00		0.20		1.45		0.30	
2755.90		0.20		1.97		0.53	
2815.00		0.60		0.31		0.09	
2821.50		0.60		0.34		0.09	
2832.46		0.17		1.83		0.39	
2835.43		0.17		0.86		0.20	
2873.70		0.30		1.28		0.26	
2935.80		0.80		0.17		0.07	
2943.40		0.50		0.28		0.08	
2950.20		0.90		0.24		0.08	
2954.04		0.17		1.24		0.27	
2970.00		0.30		0.62		0.15	
3014.70		0.30		0.41		0.10	
3027.55		0.13		0.38		0.07	
3047.90		0.70		0.14		0.04	
3060.90		0.15		0.52		0.14	
3075.10		0.50		0.38		0.18	
3103.10		0.40		2.31		0.52	
3166.90		1.10		0.55		0.46	
3186.00		0.20		2.34		0.47	
3225.30		0.40		1.03		0.27	
3239.30		0.20		1.21		0.27	
3267.05		0.12		4.45		0.90	
3291.10		0.20		1.03		0.27	
3356.30		0.20		1.17		0.24	
3412.90		0.09		5.55		1.13	
3436.40		0.30		5.62		1.18	
3504.50		0.80		0.62		0.20	
3508.60		0.50		0.17		0.11	
3610.20		0.80		0.17		0.07	
3641.33		0.15		0.69		0.24	
3649.00		2.00		0.10		0.07	
3663.00		0.20		0.45		0.10	
3689.40		0.70		0.21		0.08	
3710.90		0.50		0.24		0.08	
3723.60		0.70		0.62		0.15	
3776.60		0.20		0.28		0.11	
3842.40		0.30		1.00		0.22	
3854.00		0.20		0.66		0.15	
3921.50		0.70		4.62		0.96	
3955.30		0.80		0.38		0.12	
3981.70		0.40		0.34		0.09	
3991.00		2.00		0.17		0.07	
4073.30		0.30		0.72		0.16	
4194.80		0.40		0.45		0.13	
4210.20		1.00		0.24		0.08	
4217.98		0.11		23.34		4.65	
4274.50		0.20		0.86		0.25	
4323.80		0.40		0.41		0.13	
4378.30		0.40		0.55		0.14	
4405.74		0.08		5.66		1.15	
4418.20		0.30		0.45		0.16	
4462.50		0.40		1.79		0.39	
4555.30		0.30		0.31		0.09	
4597.40		0.50		0.52		0.14	
4659.30		0.60		0.31		0.12	
4675.10		0.20		1.38		0.31	
4687.00		2.00		0.38		0.28	
4724.00		0.30		0.97		0.21	
4809.83		0.14		6.38		1.33	
4825.60		1.30		0.24		0.11	
4840.00		2.00		0.24		0.11	
4845.50		0.50		0.34		0.12	
4856.60		1.30		0.34		0.15	
4914.00		2.00		0.52		0.32	
4948.30		0.30		2.93		0.65	
5042.10		0.80		0.62		0.20	
5047.40		1.00		0.59		0.20	
5179.70		0.80		0.17		0.11	
5318.00		2.00		0.31		0.15	
5325.80		1.00		0.62		0.15	
5730.64		0.15		1.59		0.36	
5784.90		0.70		0.66		0.18	
5901.40		1.20		0.66		0.24	
5920.35		0.07		33.10		6.97	
5992.00		2.00		0.76		0.57	
6018.42		0.07		34.14		7.28	
6102.10		1.00		0.17		0.07	
6129.30		0.40		0.41		0.13	
6219.40		1.30		0.28		0.11	
6276.40		0.40		0.41		0.15	
6380.47		0.15		3.83		0.85	
6548.50		0.80		0.55		0.17	
6717.40		0.20		1.55		0.34	
6742.00		2.00		0.41		0.22	
7199.00		2.00		0.34		0.15	
7278.82		0.09		20.69		4.58	
7631.18		0.10		100.00		24.09	
7645.58		0.10		86.21		19.94	
	54Fe		By Target	57Fe	
